PE UV       SUBTECH     SPECTRUM    ASCII       PEDS        4.00        
   -1
midIR_WSi_2_URA_R.Sample.asc
19/06/28
13:41:27.00
19/06/28
13:41:27.00
Adriana Lita

800.000000
1
Lambda 1050
1050N9050501
PerkinElmer UV WinLab 6.0.4.0738 / 1.61.00 Lambda 900

0
0
3350/20 889.8/5
0
0
UV/VIS
0
1
1
CommonBeamDepol,RBeamAtt,SBeamAtt,universal reflectance
0
0
0
0
Program
Program
3350/20 889.8/5
3350/0.32 889.8/0.2
3350/0.32 889.8/0.2
0
3350/1
 
 
 
0
 
889.8
319.2
889.8
Front
39
on
3350/S:100 3350/R:100
 
0
0
0
 
0
 
 
 
0
 
 
0
0
8.0
5.00
5.00
False
False
202N9070701
 
0
0


0
0
#HDR
-1
-1
#GR
nm
%R
1.0
0.0
2000.000000
-0.500000
2401
8
13.542610
11.051923
#DATA
2000.000000	11.051923
1999.500000	11.072885
1999.000000	11.070740
1998.500000	11.095517
1998.000000	11.064407
1997.500000	11.060999
1997.000000	11.079715
1996.500000	11.090914
1996.000000	11.093420
1995.500000	11.095040
1995.000000	11.113353
1994.500000	11.107232
1994.000000	11.091531
1993.500000	11.099277
1993.000000	11.099807
1992.500000	11.097613
1992.000000	11.085975
1991.500000	11.102366
1991.000000	11.073093
1990.500000	11.090903
1990.000000	11.109376
1989.500000	11.093576
1989.000000	11.119254
1988.500000	11.123845
1988.000000	11.106885
1987.500000	11.077583
1987.000000	11.068792
1986.500000	11.098700
1986.000000	11.101467
1985.500000	11.097152
1985.000000	11.093129
1984.500000	11.090492
1984.000000	11.099739
1983.500000	11.107065
1983.000000	11.104963
1982.500000	11.106081
1982.000000	11.118220
1981.500000	11.104803
1981.000000	11.114915
1980.500000	11.116411
1980.000000	11.107999
1979.500000	11.113652
1979.000000	11.116875
1978.500000	11.112887
1978.000000	11.109968
1977.500000	11.115440
1977.000000	11.102392
1976.500000	11.086426
1976.000000	11.074778
1975.500000	11.108180
1975.000000	11.113373
1974.500000	11.104481
1974.000000	11.097742
1973.500000	11.104311
1973.000000	11.121818
1972.500000	11.115174
1972.000000	11.111488
1971.500000	11.116962
1971.000000	11.106183
1970.500000	11.114239
1970.000000	11.109395
1969.500000	11.118521
1969.000000	11.105952
1968.500000	11.107570
1968.000000	11.076577
1967.500000	11.103929
1967.000000	11.114507
1966.500000	11.123309
1966.000000	11.115445
1965.500000	11.140792
1965.000000	11.114021
1964.500000	11.133618
1964.000000	11.132975
1963.500000	11.130104
1963.000000	11.142490
1962.500000	11.117041
1962.000000	11.116846
1961.500000	11.130251
1961.000000	11.127320
1960.500000	11.112061
1960.000000	11.119516
1959.500000	11.125594
1959.000000	11.098744
1958.500000	11.094416
1958.000000	11.101889
1957.500000	11.137477
1957.000000	11.140190
1956.500000	11.131878
1956.000000	11.138820
1955.500000	11.111440
1955.000000	11.118143
1954.500000	11.116156
1954.000000	11.134716
1953.500000	11.142140
1953.000000	11.154327
1952.500000	11.120290
1952.000000	11.119693
1951.500000	11.133847
1951.000000	11.130251
1950.500000	11.120378
1950.000000	11.118853
1949.500000	11.119267
1949.000000	11.144777
1948.500000	11.133217
1948.000000	11.129719
1947.500000	11.126415
1947.000000	11.127015
1946.500000	11.130043
1946.000000	11.121041
1945.500000	11.125820
1945.000000	11.153650
1944.500000	11.118553
1944.000000	11.141150
1943.500000	11.148372
1943.000000	11.126915
1942.500000	11.160294
1942.000000	11.117080
1941.500000	11.128794
1941.000000	11.134092
1940.500000	11.128415
1940.000000	11.122244
1939.500000	11.144268
1939.000000	11.128524
1938.500000	11.113993
1938.000000	11.131762
1937.500000	11.158070
1937.000000	11.157472
1936.500000	11.145163
1936.000000	11.144433
1935.500000	11.124273
1935.000000	11.118553
1934.500000	11.135439
1934.000000	11.148207
1933.500000	11.152997
1933.000000	11.165166
1932.500000	11.185896
1932.000000	11.156576
1931.500000	11.159728
1931.000000	11.191685
1930.500000	11.169369
1930.000000	11.151673
1929.500000	11.154621
1929.000000	11.130785
1928.500000	11.175437
1928.000000	11.166752
1927.500000	11.156952
1927.000000	11.161749
1926.500000	11.170683
1926.000000	11.149456
1925.500000	11.162369
1925.000000	11.159667
1924.500000	11.147010
1924.000000	11.162698
1923.500000	11.140678
1923.000000	11.166434
1922.500000	11.194901
1922.000000	11.143680
1921.500000	11.179951
1921.000000	11.180232
1920.500000	11.142776
1920.000000	11.167317
1919.500000	11.166590
1919.000000	11.173900
1918.500000	11.185376
1918.000000	11.198314
1917.500000	11.182520
1917.000000	11.163991
1916.500000	11.153978
1916.000000	11.149717
1915.500000	11.170224
1915.000000	11.183819
1914.500000	11.160026
1914.000000	11.177317
1913.500000	11.217594
1913.000000	11.145887
1912.500000	11.139510
1912.000000	11.212774
1911.500000	11.165083
1911.000000	11.224318
1910.500000	11.139998
1910.000000	11.154663
1909.500000	11.177561
1909.000000	11.206834
1908.500000	11.173660
1908.000000	11.198900
1907.500000	11.182301
1907.000000	11.185886
1906.500000	11.184056
1906.000000	11.161250
1905.500000	11.159642
1905.000000	11.173963
1904.500000	11.191218
1904.000000	11.203538
1903.500000	11.179627
1903.000000	11.187017
1902.500000	11.195168
1902.000000	11.184187
1901.500000	11.164930
1901.000000	11.177490
1900.500000	11.211812
1900.000000	11.165609
1899.500000	11.116957
1899.000000	11.177119
1898.500000	11.200924
1898.000000	11.170199
1897.500000	11.173168
1897.000000	11.197872
1896.500000	11.194926
1896.000000	11.215286
1895.500000	11.201880
1895.000000	11.180295
1894.500000	11.184780
1894.000000	11.166706
1893.500000	11.193418
1893.000000	11.185091
1892.500000	11.167018
1892.000000	11.175535
1891.500000	11.174113
1891.000000	11.167956
1890.500000	11.169885
1890.000000	11.198183
1889.500000	11.162604
1889.000000	11.136218
1888.500000	11.177735
1888.000000	11.166775
1887.500000	11.214720
1887.000000	11.169593
1886.500000	11.171371
1886.000000	11.195287
1885.500000	11.196811
1885.000000	11.190400
1884.500000	11.173793
1884.000000	11.180208
1883.500000	11.166452
1883.000000	11.177735
1882.500000	11.196391
1882.000000	11.185224
1881.500000	11.186084
1881.000000	11.203733
1880.500000	11.201863
1880.000000	11.171779
1879.500000	11.199410
1879.000000	11.210668
1878.500000	11.195635
1878.000000	11.206052
1877.500000	11.162257
1877.000000	11.197876
1876.500000	11.212893
1876.000000	11.219583
1875.500000	11.184062
1875.000000	11.196012
1874.500000	11.218774
1874.000000	11.195076
1873.500000	11.197457
1873.000000	11.197092
1872.500000	11.201505
1872.000000	11.228130
1871.500000	11.244183
1871.000000	11.241936
1870.500000	11.217761
1870.000000	11.207752
1869.500000	11.209493
1869.000000	11.192033
1868.500000	11.228252
1868.000000	11.204555
1867.500000	11.183091
1867.000000	11.197176
1866.500000	11.196012
1866.000000	11.214431
1865.500000	11.209680
1865.000000	11.235130
1864.500000	11.215667
1864.000000	11.211043
1863.500000	11.219345
1863.000000	11.238907
1862.500000	11.197061
1862.000000	11.193843
1861.500000	11.215861
1861.000000	11.220107
1860.500000	11.207112
1860.000000	11.207802
1859.500000	11.216571
1859.000000	11.222833
1858.500000	11.216030
1858.000000	11.225162
1857.500000	11.203392
1857.000000	11.215795
1856.500000	11.204886
1856.000000	11.227158
1855.500000	11.224886
1855.000000	11.227094
1854.500000	11.217400
1854.000000	11.223898
1853.500000	11.223457
1853.000000	11.211628
1852.500000	11.211925
1852.000000	11.245489
1851.500000	11.224291
1851.000000	11.223043
1850.500000	11.200517
1850.000000	11.215168
1849.500000	11.225141
1849.000000	11.205548
1848.500000	11.211990
1848.000000	11.219910
1847.500000	11.204918
1847.000000	11.204002
1846.500000	11.220533
1846.000000	11.217512
1845.500000	11.238864
1845.000000	11.252713
1844.500000	11.224856
1844.000000	11.236423
1843.500000	11.240517
1843.000000	11.236393
1842.500000	11.238285
1842.000000	11.230507
1841.500000	11.223184
1841.000000	11.239540
1840.500000	11.229627
1840.000000	11.243574
1839.500000	11.230005
1839.000000	11.246133
1838.500000	11.251127
1838.000000	11.246073
1837.500000	11.254629
1837.000000	11.250574
1836.500000	11.239887
1836.000000	11.228886
1835.500000	11.212225
1835.000000	11.258063
1834.500000	11.255529
1834.000000	11.246548
1833.500000	11.250404
1833.000000	11.264105
1832.500000	11.262920
1832.000000	11.246174
1831.500000	11.244141
1831.000000	11.262233
1830.500000	11.271556
1830.000000	11.267288
1829.500000	11.255071
1829.000000	11.230180
1828.500000	11.228596
1828.000000	11.251475
1827.500000	11.248624
1827.000000	11.243315
1826.500000	11.234152
1826.000000	11.239595
1825.500000	11.252832
1825.000000	11.249444
1824.500000	11.235887
1824.000000	11.240103
1823.500000	11.246637
1823.000000	11.252267
1822.500000	11.254201
1822.000000	11.255347
1821.500000	11.247181
1821.000000	11.255282
1820.500000	11.260849
1820.000000	11.275174
1819.500000	11.271409
1819.000000	11.259913
1818.500000	11.248574
1818.000000	11.266098
1817.500000	11.236896
1817.000000	11.229234
1816.500000	11.254699
1816.000000	11.254756
1815.500000	11.255927
1815.000000	11.253565
1814.500000	11.256957
1814.000000	11.265515
1813.500000	11.276959
1813.000000	11.252967
1812.500000	11.259525
1812.000000	11.266282
1811.500000	11.265912
1811.000000	11.282784
1810.500000	11.239275
1810.000000	11.270252
1809.500000	11.244393
1809.000000	11.268377
1808.500000	11.231109
1808.000000	11.230109
1807.500000	11.259679
1807.000000	11.274586
1806.500000	11.263644
1806.000000	11.258849
1805.500000	11.244576
1805.000000	11.237167
1804.500000	11.254955
1804.000000	11.265339
1803.500000	11.261833
1803.000000	11.243204
1802.500000	11.237791
1802.000000	11.250502
1801.500000	11.259393
1801.000000	11.249957
1800.500000	11.244429
1800.000000	11.245916
1799.500000	11.260042
1799.000000	11.237519
1798.500000	11.262506
1798.000000	11.269826
1797.500000	11.282507
1797.000000	11.278184
1796.500000	11.251488
1796.000000	11.240769
1795.500000	11.237563
1795.000000	11.261724
1794.500000	11.257107
1794.000000	11.257912
1793.500000	11.241453
1793.000000	11.250561
1792.500000	11.266967
1792.000000	11.267262
1791.500000	11.261552
1791.000000	11.248814
1790.500000	11.245218
1790.000000	11.257165
1789.500000	11.260708
1789.000000	11.263304
1788.500000	11.253583
1788.000000	11.248662
1787.500000	11.249332
1787.000000	11.260948
1786.500000	11.270406
1786.000000	11.251884
1785.500000	11.253005
1785.000000	11.268440
1784.500000	11.280569
1784.000000	11.266522
1783.500000	11.256132
1783.000000	11.272354
1782.500000	11.249550
1782.000000	11.249116
1781.500000	11.259639
1781.000000	11.269494
1780.500000	11.271310
1780.000000	11.256990
1779.500000	11.262995
1779.000000	11.272975
1778.500000	11.285769
1778.000000	11.270654
1777.500000	11.269174
1777.000000	11.261307
1776.500000	11.276594
1776.000000	11.275163
1775.500000	11.273574
1775.000000	11.271815
1774.500000	11.278724
1774.000000	11.262833
1773.500000	11.270357
1773.000000	11.275621
1772.500000	11.263499
1772.000000	11.272863
1771.500000	11.278291
1771.000000	11.258185
1770.500000	11.271404
1770.000000	11.275528
1769.500000	11.276816
1769.000000	11.277674
1768.500000	11.285738
1768.000000	11.290533
1767.500000	11.286786
1767.000000	11.299645
1766.500000	11.285678
1766.000000	11.288380
1765.500000	11.295063
1765.000000	11.288313
1764.500000	11.266575
1764.000000	11.269667
1763.500000	11.268486
1763.000000	11.283630
1762.500000	11.297996
1762.000000	11.297182
1761.500000	11.307980
1761.000000	11.296866
1760.500000	11.288668
1760.000000	11.284622
1759.500000	11.296566
1759.000000	11.289901
1758.500000	11.277612
1758.000000	11.287453
1757.500000	11.278732
1757.000000	11.286208
1756.500000	11.289861
1756.000000	11.288196
1755.500000	11.294957
1755.000000	11.300879
1754.500000	11.297037
1754.000000	11.302159
1753.500000	11.284178
1753.000000	11.291628
1752.500000	11.292826
1752.000000	11.284427
1751.500000	11.300597
1751.000000	11.283189
1750.500000	11.283198
1750.000000	11.291969
1749.500000	11.287236
1749.000000	11.293077
1748.500000	11.300837
1748.000000	11.288458
1747.500000	11.287073
1747.000000	11.298444
1746.500000	11.316675
1746.000000	11.294451
1745.500000	11.290943
1745.000000	11.295208
1744.500000	11.280536
1744.000000	11.305604
1743.500000	11.303050
1743.000000	11.302087
1742.500000	11.322237
1742.000000	11.312700
1741.500000	11.309586
1741.000000	11.303234
1740.500000	11.299470
1740.000000	11.307313
1739.500000	11.299958
1739.000000	11.288241
1738.500000	11.292657
1738.000000	11.307420
1737.500000	11.324852
1737.000000	11.316453
1736.500000	11.300478
1736.000000	11.303263
1735.500000	11.315183
1735.000000	11.319151
1734.500000	11.321346
1734.000000	11.324857
1733.500000	11.307196
1733.000000	11.312432
1732.500000	11.315579
1732.000000	11.333468
1731.500000	11.316715
1731.000000	11.316454
1730.500000	11.307884
1730.000000	11.318599
1729.500000	11.317219
1729.000000	11.313783
1728.500000	11.305649
1728.000000	11.310510
1727.500000	11.315453
1727.000000	11.315992
1726.500000	11.314736
1726.000000	11.323318
1725.500000	11.328214
1725.000000	11.325833
1724.500000	11.314412
1724.000000	11.314293
1723.500000	11.340504
1723.000000	11.330619
1722.500000	11.317152
1722.000000	11.318076
1721.500000	11.312040
1721.000000	11.332284
1720.500000	11.330096
1720.000000	11.317222
1719.500000	11.322949
1719.000000	11.313881
1718.500000	11.325430
1718.000000	11.332009
1717.500000	11.334600
1717.000000	11.330322
1716.500000	11.326880
1716.000000	11.320981
1715.500000	11.330249
1715.000000	11.332060
1714.500000	11.322341
1714.000000	11.325839
1713.500000	11.337718
1713.000000	11.353181
1712.500000	11.349302
1712.000000	11.350514
1711.500000	11.333045
1711.000000	11.346666
1710.500000	11.331751
1710.000000	11.329575
1709.500000	11.341056
1709.000000	11.355036
1708.500000	11.345036
1708.000000	11.335074
1707.500000	11.338131
1707.000000	11.340763
1706.500000	11.346309
1706.000000	11.342469
1705.500000	11.339325
1705.000000	11.342139
1704.500000	11.335532
1704.000000	11.343410
1703.500000	11.332971
1703.000000	11.332300
1702.500000	11.340999
1702.000000	11.340344
1701.500000	11.345009
1701.000000	11.329578
1700.500000	11.333852
1700.000000	11.358655
1699.500000	11.358970
1699.000000	11.365828
1698.500000	11.353694
1698.000000	11.371850
1697.500000	11.335798
1697.000000	11.345603
1696.500000	11.366375
1696.000000	11.366252
1695.500000	11.364128
1695.000000	11.360491
1694.500000	11.353785
1694.000000	11.358215
1693.500000	11.361949
1693.000000	11.351660
1692.500000	11.350453
1692.000000	11.351721
1691.500000	11.348803
1691.000000	11.350186
1690.500000	11.357354
1690.000000	11.366448
1689.500000	11.364844
1689.000000	11.352110
1688.500000	11.341756
1688.000000	11.369790
1687.500000	11.369506
1687.000000	11.346666
1686.500000	11.366791
1686.000000	11.357281
1685.500000	11.368012
1685.000000	11.361679
1684.500000	11.364799
1684.000000	11.362264
1683.500000	11.366078
1683.000000	11.357493
1682.500000	11.347131
1682.000000	11.354633
1681.500000	11.366849
1681.000000	11.368704
1680.500000	11.375372
1680.000000	11.372836
1679.500000	11.370780
1679.000000	11.372799
1678.500000	11.378447
1678.000000	11.363442
1677.500000	11.362634
1677.000000	11.381443
1676.500000	11.381207
1676.000000	11.368742
1675.500000	11.382487
1675.000000	11.350699
1674.500000	11.359466
1674.000000	11.368105
1673.500000	11.363150
1673.000000	11.369362
1672.500000	11.379090
1672.000000	11.365705
1671.500000	11.361899
1671.000000	11.382575
1670.500000	11.386208
1670.000000	11.377460
1669.500000	11.365532
1669.000000	11.359939
1668.500000	11.365932
1668.000000	11.384354
1667.500000	11.387480
1667.000000	11.390827
1666.500000	11.383489
1666.000000	11.374732
1665.500000	11.377545
1665.000000	11.374880
1664.500000	11.382336
1664.000000	11.367919
1663.500000	11.373347
1663.000000	11.398911
1662.500000	11.392606
1662.000000	11.386711
1661.500000	11.392801
1661.000000	11.372127
1660.500000	11.377623
1660.000000	11.377265
1659.500000	11.374202
1659.000000	11.377802
1658.500000	11.386879
1658.000000	11.389101
1657.500000	11.376037
1657.000000	11.382918
1656.500000	11.390024
1656.000000	11.396690
1655.500000	11.377196
1655.000000	11.381089
1654.500000	11.375571
1654.000000	11.377241
1653.500000	11.402454
1653.000000	11.388011
1652.500000	11.375837
1652.000000	11.374307
1651.500000	11.388936
1651.000000	11.392744
1650.500000	11.395955
1650.000000	11.399882
1649.500000	11.377778
1649.000000	11.383228
1648.500000	11.404096
1648.000000	11.411469
1647.500000	11.403482
1647.000000	11.395205
1646.500000	11.395492
1646.000000	11.394893
1645.500000	11.398223
1645.000000	11.398436
1644.500000	11.413715
1644.000000	11.399683
1643.500000	11.404588
1643.000000	11.396229
1642.500000	11.378877
1642.000000	11.398986
1641.500000	11.395436
1641.000000	11.409890
1640.500000	11.395113
1640.000000	11.402525
1639.500000	11.410663
1639.000000	11.391978
1638.500000	11.388551
1638.000000	11.399001
1637.500000	11.400013
1637.000000	11.401986
1636.500000	11.409199
1636.000000	11.408728
1635.500000	11.415224
1635.000000	11.417171
1634.500000	11.415304
1634.000000	11.425635
1633.500000	11.423154
1633.000000	11.427554
1632.500000	11.427811
1632.000000	11.423691
1631.500000	11.411096
1631.000000	11.426526
1630.500000	11.427964
1630.000000	11.427496
1629.500000	11.437896
1629.000000	11.421902
1628.500000	11.414315
1628.000000	11.420464
1627.500000	11.429320
1627.000000	11.427905
1626.500000	11.426651
1626.000000	11.432398
1625.500000	11.428991
1625.000000	11.423535
1624.500000	11.426193
1624.000000	11.416187
1623.500000	11.415874
1623.000000	11.418349
1622.500000	11.427658
1622.000000	11.435940
1621.500000	11.423923
1621.000000	11.436595
1620.500000	11.421319
1620.000000	11.434194
1619.500000	11.425794
1619.000000	11.446966
1618.500000	11.429681
1618.000000	11.420768
1617.500000	11.432939
1617.000000	11.426828
1616.500000	11.430537
1616.000000	11.430656
1615.500000	11.423286
1615.000000	11.431688
1614.500000	11.448594
1614.000000	11.448759
1613.500000	11.447003
1613.000000	11.445365
1612.500000	11.448512
1612.000000	11.439286
1611.500000	11.430852
1611.000000	11.445967
1610.500000	11.449116
1610.000000	11.444551
1609.500000	11.437579
1609.000000	11.441317
1608.500000	11.447675
1608.000000	11.444016
1607.500000	11.443671
1607.000000	11.445045
1606.500000	11.438713
1606.000000	11.439770
1605.500000	11.443987
1605.000000	11.438275
1604.500000	11.440771
1604.000000	11.444229
1603.500000	11.454414
1603.000000	11.456609
1602.500000	11.444361
1602.000000	11.446072
1601.500000	11.454032
1601.000000	11.460645
1600.500000	11.443971
1600.000000	11.448773
1599.500000	11.457862
1599.000000	11.455747
1598.500000	11.444165
1598.000000	11.455412
1597.500000	11.443120
1597.000000	11.444426
1596.500000	11.458319
1596.000000	11.456026
1595.500000	11.460180
1595.000000	11.444269
1594.500000	11.454337
1594.000000	11.447835
1593.500000	11.460875
1593.000000	11.459682
1592.500000	11.458010
1592.000000	11.458354
1591.500000	11.456556
1591.000000	11.458006
1590.500000	11.455717
1590.000000	11.460081
1589.500000	11.462923
1589.000000	11.459043
1588.500000	11.459460
1588.000000	11.465881
1587.500000	11.456029
1587.000000	11.474615
1586.500000	11.472316
1586.000000	11.476213
1585.500000	11.459886
1585.000000	11.450336
1584.500000	11.469059
1584.000000	11.466985
1583.500000	11.469828
1583.000000	11.464055
1582.500000	11.467887
