PE UV       SUBTECH     SPECTRUM    ASCII       PEDS        4.00        
   -1
midIR_WSi_2_URA_T.Sample.asc
19/06/28
11:58:12.00
19/06/28
11:58:12.00
Adriana Lita

800.000000
1
Lambda 1050
1050N9050501
PerkinElmer UV WinLab 6.0.4.0738 / 1.61.00 Lambda 900

0
0
3350/20 889.8/5
0
0
UV/VIS
0
1
1
CommonBeamDepol,RBeamAtt,SBeamAtt,universal reflectance
0
0
0
0
Program
Program
3350/20 889.8/5
3350/0.32 889.8/0.2
3350/0.32 889.8/0.2
0
1
 
 
 
0
 
889.8
319.2
889.8
Front
13
on
S:100 R:100
 
0
0
0
 
0
 
 
 
0
 
 
0
0
45.0
5.00
5.00
False
True
202N9070701
 
0
0


0
0
#HDR
-1
-1
#GR
nm
%T
1.0
0.0
2000.000000
-0.500000
2401
8
66.973012
60.788583
#DATA
2000.000000	66.916514
1999.500000	66.848203
1999.000000	66.893879
1998.500000	66.973012
1998.000000	66.882535
1997.500000	66.816888
1997.000000	66.835915
1996.500000	66.855461
1996.000000	66.799633
1995.500000	66.842633
1995.000000	66.861272
1994.500000	66.832599
1994.000000	66.875021
1993.500000	66.911936
1993.000000	66.892332
1992.500000	66.853442
1992.000000	66.877629
1991.500000	66.818047
1991.000000	66.862359
1990.500000	66.873484
1990.000000	66.844543
1989.500000	66.909748
1989.000000	66.819708
1988.500000	66.810270
1988.000000	66.826169
1987.500000	66.808557
1987.000000	66.797289
1986.500000	66.859042
1986.000000	66.830896
1985.500000	66.828395
1985.000000	66.780010
1984.500000	66.781527
1984.000000	66.839893
1983.500000	66.896805
1983.000000	66.893375
1982.500000	66.837510
1982.000000	66.805294
1981.500000	66.801444
1981.000000	66.744181
1980.500000	66.703437
1980.000000	66.783527
1979.500000	66.801223
1979.000000	66.820274
1978.500000	66.777173
1978.000000	66.856986
1977.500000	66.761887
1977.000000	66.854223
1976.500000	66.728234
1976.000000	66.770282
1975.500000	66.769026
1975.000000	66.806007
1974.500000	66.792826
1974.000000	66.754309
1973.500000	66.756896
1973.000000	66.784392
1972.500000	66.737935
1972.000000	66.711025
1971.500000	66.744597
1971.000000	66.807720
1970.500000	66.791108
1970.000000	66.781731
1969.500000	66.710705
1969.000000	66.774365
1968.500000	66.783685
1968.000000	66.738429
1967.500000	66.614753
1967.000000	66.759881
1966.500000	66.760039
1966.000000	66.845980
1965.500000	66.751945
1965.000000	66.798059
1964.500000	66.702057
1964.000000	66.801295
1963.500000	66.791852
1963.000000	66.795645
1962.500000	66.741112
1962.000000	66.764663
1961.500000	66.687632
1961.000000	66.729615
1960.500000	66.729381
1960.000000	66.745194
1959.500000	66.752968
1959.000000	66.731820
1958.500000	66.757207
1958.000000	66.841862
1957.500000	66.705166
1957.000000	66.726672
1956.500000	66.756448
1956.000000	66.670065
1955.500000	66.728976
1955.000000	66.748175
1954.500000	66.815387
1954.000000	66.819468
1953.500000	66.709398
1953.000000	66.749111
1952.500000	66.751342
1952.000000	66.710322
1951.500000	66.786341
1951.000000	66.747333
1950.500000	66.718681
1950.000000	66.716524
1949.500000	66.743156
1949.000000	66.713916
1948.500000	66.676714
1948.000000	66.692983
1947.500000	66.762603
1947.000000	66.801270
1946.500000	66.736144
1946.000000	66.706314
1945.500000	66.651864
1945.000000	66.767244
1944.500000	66.575670
1944.000000	66.716302
1943.500000	66.798744
1943.000000	66.707841
1942.500000	66.715333
1942.000000	66.736193
1941.500000	66.791009
1941.000000	66.786652
1940.500000	66.752614
1940.000000	66.674449
1939.500000	66.746819
1939.000000	66.803679
1938.500000	66.750819
1938.000000	66.671742
1937.500000	66.728554
1937.000000	66.803678
1936.500000	66.777068
1936.000000	66.690873
1935.500000	66.616976
1935.000000	66.745325
1934.500000	66.758967
1934.000000	66.708585
1933.500000	66.679296
1933.000000	66.719024
1932.500000	66.600934
1932.000000	66.600678
1931.500000	66.588523
1931.000000	66.596485
1930.500000	66.806730
1930.000000	66.699165
1929.500000	66.670014
1929.000000	66.714469
1928.500000	66.722072
1928.000000	66.676343
1927.500000	66.706314
1927.000000	66.757054
1926.500000	66.801475
1926.000000	66.682487
1925.500000	66.707458
1925.000000	66.823025
1924.500000	66.657037
1924.000000	66.641630
1923.500000	66.918020
1923.000000	66.906206
1922.500000	66.663521
1922.000000	66.705678
1921.500000	66.795481
1921.000000	66.672735
1920.500000	66.620491
1920.000000	66.695964
1919.500000	66.806510
1919.000000	66.752722
1918.500000	66.659267
1918.000000	66.794078
1917.500000	66.774519
1917.000000	66.653287
1916.500000	66.648559
1916.000000	66.661791
1915.500000	66.677373
1915.000000	66.745451
1914.500000	66.844581
1914.000000	66.811127
1913.500000	66.771131
1913.000000	66.754326
1912.500000	66.788243
1912.000000	66.631180
1911.500000	66.762067
1911.000000	66.766686
1910.500000	66.642108
1910.000000	66.666704
1909.500000	66.604190
1909.000000	66.738376
1908.500000	66.663867
1908.000000	66.651898
1907.500000	66.697089
1907.000000	66.776609
1906.500000	66.806379
1906.000000	66.765077
1905.500000	66.636289
1905.000000	66.686019
1904.500000	66.784424
1904.000000	66.784553
1903.500000	66.730736
1903.000000	66.693427
1902.500000	66.710015
1902.000000	66.806435
1901.500000	66.653596
1901.000000	66.706974
1900.500000	66.761595
1900.000000	66.622956
1899.500000	66.550577
1899.000000	66.769894
1898.500000	66.737120
1898.000000	66.651988
1897.500000	66.659185
1897.000000	66.876451
1896.500000	66.754782
1896.000000	66.679959
1895.500000	66.774724
1895.000000	66.756106
1894.500000	66.712056
1894.000000	66.764589
1893.500000	66.705113
1893.000000	66.694850
1892.500000	66.624123
1892.000000	66.671461
1891.500000	66.777366
1891.000000	66.747498
1890.500000	66.792475
1890.000000	66.735973
1889.500000	66.766662
1889.000000	66.772100
1888.500000	66.673693
1888.000000	66.670581
1887.500000	66.733555
1887.000000	66.721015
1886.500000	66.858607
1886.000000	66.819454
1885.500000	66.671404
1885.000000	66.636974
1884.500000	66.662490
1884.000000	66.632934
1883.500000	66.734543
1883.000000	66.804923
1882.500000	66.713641
1882.000000	66.724149
1881.500000	66.704167
1881.000000	66.686440
1880.500000	66.687787
1880.000000	66.647254
1879.500000	66.601869
1879.000000	66.800022
1878.500000	66.732560
1878.000000	66.753668
1877.500000	66.626294
1877.000000	66.603793
1876.500000	66.750890
1876.000000	66.650181
1875.500000	66.700022
1875.000000	66.739099
1874.500000	66.855747
1874.000000	66.810865
1873.500000	66.760834
1873.000000	66.648420
1872.500000	66.615448
1872.000000	66.610675
1871.500000	66.679942
1871.000000	66.730225
1870.500000	66.740551
1870.000000	66.825872
1869.500000	66.824852
1869.000000	66.687573
1868.500000	66.685529
1868.000000	66.640295
1867.500000	66.699721
1867.000000	66.713537
1866.500000	66.788741
1866.000000	66.707577
1865.500000	66.736829
1865.000000	66.751924
1864.500000	66.737530
1864.000000	66.646882
1863.500000	66.647937
1863.000000	66.692513
1862.500000	66.740254
1862.000000	66.791740
1861.500000	66.671370
1861.000000	66.723289
1860.500000	66.786675
1860.000000	66.698468
1859.500000	66.634580
1859.000000	66.725685
1858.500000	66.767496
1858.000000	66.697714
1857.500000	66.716455
1857.000000	66.599953
1856.500000	66.678930
1856.000000	66.699601
1855.500000	66.699985
1855.000000	66.748004
1854.500000	66.755675
1854.000000	66.779310
1853.500000	66.701475
1853.000000	66.737337
1852.500000	66.735388
1852.000000	66.727844
1851.500000	66.728997
1851.000000	66.593288
1850.500000	66.646243
1850.000000	66.751493
1849.500000	66.789364
1849.000000	66.679821
1848.500000	66.678650
1848.000000	66.682470
1847.500000	66.675425
1847.000000	66.751421
1846.500000	66.728762
1846.000000	66.638482
1845.500000	66.672158
1845.000000	66.656900
1844.500000	66.631716
1844.000000	66.717986
1843.500000	66.644174
1843.000000	66.685598
1842.500000	66.790945
1842.000000	66.720934
1841.500000	66.703151
1841.000000	66.625259
1840.500000	66.600028
1840.000000	66.658499
1839.500000	66.687732
1839.000000	66.669009
1838.500000	66.728770
1838.000000	66.708180
1837.500000	66.581358
1837.000000	66.680176
1836.500000	66.714940
1836.000000	66.595299
1835.500000	66.685679
1835.000000	66.557130
1834.500000	66.531468
1834.000000	66.644735
1833.500000	66.650786
1833.000000	66.645214
1832.500000	66.664232
1832.000000	66.634834
1831.500000	66.642774
1831.000000	66.555087
1830.500000	66.650504
1830.000000	66.647690
1829.500000	66.624323
1829.000000	66.651533
1828.500000	66.641180
1828.000000	66.601144
1827.500000	66.598788
1827.000000	66.589536
1826.500000	66.566543
1826.000000	66.571941
1825.500000	66.567904
1825.000000	66.529404
1824.500000	66.588329
1824.000000	66.527488
1823.500000	66.545059
1823.000000	66.519555
1822.500000	66.496610
1822.000000	66.586195
1821.500000	66.585775
1821.000000	66.490495
1820.500000	66.571801
1820.000000	66.624167
1819.500000	66.554175
1819.000000	66.505288
1818.500000	66.580420
1818.000000	66.543334
1817.500000	66.589848
1817.000000	66.536317
1816.500000	66.552235
1816.000000	66.566333
1815.500000	66.541163
1815.000000	66.522209
1814.500000	66.545398
1814.000000	66.594109
1813.500000	66.532832
1813.000000	66.515783
1812.500000	66.479155
1812.000000	66.512210
1811.500000	66.489991
1811.000000	66.550159
1810.500000	66.490400
1810.000000	66.514408
1809.500000	66.566232
1809.000000	66.590331
1808.500000	66.538551
1808.000000	66.467130
1807.500000	66.467169
1807.000000	66.536734
1806.500000	66.476944
1806.000000	66.494291
1805.500000	66.474424
1805.000000	66.480952
1804.500000	66.497623
1804.000000	66.480396
1803.500000	66.497269
1803.000000	66.536240
1802.500000	66.516623
1802.000000	66.436175
1801.500000	66.513034
1801.000000	66.479250
1800.500000	66.454517
1800.000000	66.390993
1799.500000	66.411582
1799.000000	66.423820
1798.500000	66.458166
1798.000000	66.483734
1797.500000	66.431959
1797.000000	66.425750
1796.500000	66.416939
1796.000000	66.462196
1795.500000	66.431414
1795.000000	66.402906
1794.500000	66.439434
1794.000000	66.477065
1793.500000	66.454332
1793.000000	66.450783
1792.500000	66.486489
1792.000000	66.410423
1791.500000	66.353363
1791.000000	66.380703
1790.500000	66.440050
1790.000000	66.457220
1789.500000	66.453300
1789.000000	66.350790
1788.500000	66.411096
1788.000000	66.361835
1787.500000	66.449622
1787.000000	66.397820
1786.500000	66.450044
1786.000000	66.410049
1785.500000	66.477425
1785.000000	66.442573
1784.500000	66.392938
1784.000000	66.405450
1783.500000	66.405089
1783.000000	66.413712
1782.500000	66.434594
1782.000000	66.441782
1781.500000	66.383867
1781.000000	66.384485
1780.500000	66.460271
1780.000000	66.450762
1779.500000	66.410404
1779.000000	66.413248
1778.500000	66.468653
1778.000000	66.372133
1777.500000	66.436712
1777.000000	66.376012
1776.500000	66.357015
1776.000000	66.388966
1775.500000	66.409952
1775.000000	66.359367
1774.500000	66.387025
1774.000000	66.431161
1773.500000	66.362185
1773.000000	66.384671
1772.500000	66.396609
1772.000000	66.354811
1771.500000	66.295708
1771.000000	66.318534
1770.500000	66.381837
1770.000000	66.403307
1769.500000	66.363474
1769.000000	66.348041
1768.500000	66.358500
1768.000000	66.354327
1767.500000	66.390332
1767.000000	66.374910
1766.500000	66.397396
1766.000000	66.386572
1765.500000	66.369245
1765.000000	66.408441
1764.500000	66.349382
1764.000000	66.378433
1763.500000	66.375230
1763.000000	66.316043
1762.500000	66.361727
1762.000000	66.323400
1761.500000	66.338742
1761.000000	66.341362
1760.500000	66.347394
1760.000000	66.292359
1759.500000	66.314072
1759.000000	66.309630
1758.500000	66.352723
1758.000000	66.413697
1757.500000	66.406205
1757.000000	66.423048
1756.500000	66.346061
1756.000000	66.343505
1755.500000	66.358066
1755.000000	66.354943
1754.500000	66.371856
1754.000000	66.272184
1753.500000	66.362271
1753.000000	66.289370
1752.500000	66.358865
1752.000000	66.334816
1751.500000	66.303442
1751.000000	66.307412
1750.500000	66.321756
1750.000000	66.313009
1749.500000	66.295434
1749.000000	66.277260
1748.500000	66.331975
1748.000000	66.333329
1747.500000	66.321935
1747.000000	66.355809
1746.500000	66.321425
1746.000000	66.331455
1745.500000	66.343016
1745.000000	66.357700
1744.500000	66.333433
1744.000000	66.370582
1743.500000	66.281116
1743.000000	66.324350
1742.500000	66.389296
1742.000000	66.309080
1741.500000	66.346952
1741.000000	66.357138
1740.500000	66.300565
1740.000000	66.265059
1739.500000	66.325646
1739.000000	66.330719
1738.500000	66.318766
1738.000000	66.310757
1737.500000	66.311417
1737.000000	66.335166
1736.500000	66.339708
1736.000000	66.326847
1735.500000	66.328455
1735.000000	66.375792
1734.500000	66.329877
1734.000000	66.397080
1733.500000	66.351502
1733.000000	66.333895
1732.500000	66.364105
1732.000000	66.377711
1731.500000	66.274781
1731.000000	66.337593
1730.500000	66.329058
1730.000000	66.346320
1729.500000	66.331032
1729.000000	66.396718
1728.500000	66.342350
1728.000000	66.307885
1727.500000	66.333635
1727.000000	66.313058
1726.500000	66.363067
1726.000000	66.409351
1725.500000	66.381384
1725.000000	66.336994
1724.500000	66.336252
1724.000000	66.336166
1723.500000	66.380586
1723.000000	66.364293
1722.500000	66.327673
1722.000000	66.393886
1721.500000	66.384637
1721.000000	66.367541
1720.500000	66.397882
1720.000000	66.387732
1719.500000	66.397032
1719.000000	66.409084
1718.500000	66.382659
1718.000000	66.340677
1717.500000	66.373699
1717.000000	66.395607
1716.500000	66.351557
1716.000000	66.346660
1715.500000	66.323962
1715.000000	66.365999
1714.500000	66.400843
1714.000000	66.362783
1713.500000	66.315986
1713.000000	66.336375
1712.500000	66.354282
1712.000000	66.289758
1711.500000	66.294577
1711.000000	66.315076
1710.500000	66.316693
1710.000000	66.348362
1709.500000	66.274941
1709.000000	66.266059
1708.500000	66.253256
1708.000000	66.320893
1707.500000	66.313217
1707.000000	66.325226
1706.500000	66.303672
1706.000000	66.330834
1705.500000	66.370925
1705.000000	66.318606
1704.500000	66.280168
1704.000000	66.316654
1703.500000	66.329479
1703.000000	66.323544
1702.500000	66.305808
1702.000000	66.326815
1701.500000	66.296457
1701.000000	66.315302
1700.500000	66.285417
1700.000000	66.265844
1699.500000	66.289399
1699.000000	66.293652
1698.500000	66.263194
1698.000000	66.324646
1697.500000	66.330269
1697.000000	66.318055
1696.500000	66.324213
1696.000000	66.284317
1695.500000	66.246067
1695.000000	66.267264
1694.500000	66.293117
1694.000000	66.315194
1693.500000	66.329564
1693.000000	66.355341
1692.500000	66.284909
1692.000000	66.264486
1691.500000	66.277813
1691.000000	66.322039
1690.500000	66.338116
1690.000000	66.307832
1689.500000	66.289801
1689.000000	66.308728
1688.500000	66.239682
1688.000000	66.251082
1687.500000	66.278842
1687.000000	66.360144
1686.500000	66.307040
1686.000000	66.312072
1685.500000	66.290876
1685.000000	66.298628
1684.500000	66.313597
1684.000000	66.304312
1683.500000	66.324174
1683.000000	66.291405
1682.500000	66.263202
1682.000000	66.247696
1681.500000	66.265948
1681.000000	66.270519
1680.500000	66.267022
1680.000000	66.266104
1679.500000	66.239565
1679.000000	66.196463
1678.500000	66.260909
1678.000000	66.291712
1677.500000	66.262046
1677.000000	66.265585
1676.500000	66.262804
1676.000000	66.187482
1675.500000	66.267323
1675.000000	66.236788
1674.500000	66.219440
1674.000000	66.299663
1673.500000	66.275695
1673.000000	66.250371
1672.500000	66.220347
1672.000000	66.221518
1671.500000	66.168544
1671.000000	66.228801
1670.500000	66.255699
1670.000000	66.224284
1669.500000	66.213046
1669.000000	66.232643
1668.500000	66.232632
1668.000000	66.217801
1667.500000	66.213726
1667.000000	66.177974
1666.500000	66.169644
1666.000000	66.187781
1665.500000	66.147287
1665.000000	66.190845
1664.500000	66.189446
1664.000000	66.133787
1663.500000	66.119979
1663.000000	66.185991
1662.500000	66.174368
1662.000000	66.193548
1661.500000	66.163972
1661.000000	66.114105
1660.500000	66.116351
1660.000000	66.163108
1659.500000	66.140337
1659.000000	66.132923
1658.500000	66.137331
1658.000000	66.148901
1657.500000	66.147289
1657.000000	66.123578
1656.500000	66.101963
1656.000000	66.109169
1655.500000	66.180673
1655.000000	66.133370
1654.500000	66.115508
1654.000000	66.126668
1653.500000	66.124718
1653.000000	66.157629
1652.500000	66.162235
1652.000000	66.179875
1651.500000	66.138112
1651.000000	66.136952
1650.500000	66.097137
1650.000000	66.086933
1649.500000	66.086007
1649.000000	66.044918
1648.500000	66.049886
1648.000000	66.047254
1647.500000	66.078641
1647.000000	66.092419
1646.500000	66.080665
1646.000000	66.104803
1645.500000	66.136832
1645.000000	66.117489
1644.500000	66.056603
1644.000000	66.077204
1643.500000	66.077416
1643.000000	66.086998
1642.500000	66.066375
1642.000000	66.069624
1641.500000	66.066419
1641.000000	66.088594
1640.500000	66.062314
1640.000000	66.064462
1639.500000	66.036702
1639.000000	66.084565
1638.500000	66.074145
1638.000000	66.066614
1637.500000	66.036939
1637.000000	66.028520
1636.500000	66.007118
1636.000000	66.010311
1635.500000	66.023627
1635.000000	65.982107
1634.500000	65.989466
1634.000000	66.041572
1633.500000	66.030837
1633.000000	66.032296
1632.500000	66.059891
1632.000000	66.020169
1631.500000	66.080035
1631.000000	65.992106
1630.500000	65.978578
1630.000000	66.012753
1629.500000	66.057623
1629.000000	66.031964
1628.500000	66.044953
1628.000000	66.011578
1627.500000	66.013615
1627.000000	66.001116
1626.500000	66.037490
1626.000000	65.981156
1625.500000	66.005983
1625.000000	66.004116
1624.500000	66.000851
1624.000000	66.013412
1623.500000	65.983551
1623.000000	65.997340
1622.500000	66.011828
1622.000000	65.994872
1621.500000	66.030637
1621.000000	66.007569
1620.500000	65.969489
1620.000000	65.972198
1619.500000	66.002054
1619.000000	65.993063
1618.500000	65.969051
1618.000000	66.011887
1617.500000	66.051876
1617.000000	65.997804
1616.500000	66.001138
1616.000000	65.982703
1615.500000	65.992247
1615.000000	66.001637
1614.500000	66.023288
1614.000000	65.999400
1613.500000	65.985868
1613.000000	65.963802
1612.500000	65.989239
1612.000000	65.996672
1611.500000	65.993991
1611.000000	66.009046
1610.500000	65.935330
1610.000000	65.944589
1609.500000	66.003645
1609.000000	65.969027
1608.500000	65.997976
1608.000000	65.968779
1607.500000	66.001705
1607.000000	65.989871
1606.500000	65.965703
1606.000000	65.978556
1605.500000	65.919619
1605.000000	65.956326
1604.500000	65.981466
1604.000000	65.989822
1603.500000	65.966024
1603.000000	65.934588
1602.500000	65.933733
1602.000000	65.943210
1601.500000	65.964945
1601.000000	65.976073
1600.500000	65.929647
1600.000000	65.953618
1599.500000	65.944568
1599.000000	65.964768
1598.500000	65.991059
1598.000000	65.973306
1597.500000	65.936726
1597.000000	65.946890
1596.500000	65.948108
1596.000000	65.935842
1595.500000	65.961256
1595.000000	65.920181
1594.500000	65.908818
1594.000000	65.952078
1593.500000	65.956364
1593.000000	65.953653
1592.500000	65.931933
1592.000000	65.928398
1591.500000	65.960061
1591.000000	65.972217
1590.500000	65.978057
1590.000000	65.969503
1589.500000	65.970511
1589.000000	65.950540
1588.500000	65.975259
1588.000000	65.924693
1587.500000	65.941236
1587.000000	65.929084
1586.500000	65.968282
1586.000000	65.943275
1585.500000	65.919978
1585.000000	65.944784
1584.500000	65.917511
1584.000000	65.921948
1583.500000	65.924963
1583.000000	65.952364
1582.500000	65.961584
1582.000000	65.934692
